Wavelength: 640 nm
Delay	   Data
 0.000    0.00000
 0.001    1.00000
 0.002    3.00000
 0.002    0.00000
 0.003    1.00000
 0.004    2.00000
 0.005    0.00000
 0.006    1.00000
 0.007    1.00000
 0.007    1.00000
 0.008    1.00000
 0.009    1.00000
 0.010    0.00000
 0.011    1.00000
 0.011    2.00000
 0.012    2.00000
 0.013    1.00000
 0.014    3.00000
 0.015    0.00000
 0.015    1.00000
 0.016    1.00000
 0.017    3.00000
 0.018    1.00000
 0.019    3.00000
 0.020    0.00000
 0.020    2.00000
 0.021    1.00000
 0.022    0.00000
 0.023    1.00000
 0.024    1.00000
 0.024    3.00000
 0.025    4.00000
 0.026    2.00000
 0.027    1.00000
 0.028    1.00000
 0.029    1.00000
 0.029    3.00000
 0.030    0.00000
 0.031    1.00000
 0.032    2.00000
 0.033    0.00000
 0.033    0.00000
 0.034    1.00000
 0.035    1.00000
 0.036    1.00000
 0.037    4.00000
 0.037    0.00000
 0.038    4.00000
 0.039    0.00000
 0.040    2.00000
 0.041    2.00000
 0.042    1.00000
 0.042    0.00000
 0.043    0.00000
 0.044    0.00000
 0.045    0.00000
 0.046    0.00000
 0.046    1.00000
 0.047    2.00000
 0.048    0.00000
 0.049    0.00000
 0.050    1.00000
 0.051    2.00000
 0.051    3.00000
 0.052    0.00000
 0.053    0.00000
 0.054    3.00000
 0.055    0.00000
 0.055    1.00000
 0.056    1.00000
 0.057    2.00000
 0.058    1.00000
 0.059    3.00000
 0.059    1.00000
 0.060    1.00000
 0.061    2.00000
 0.062    2.00000
 0.063    2.00000
 0.064    0.00000
 0.064    1.00000
 0.065    1.00000
 0.066    1.00000
 0.067    1.00000
 0.068    0.00000
 0.068    0.00000
 0.069    2.00000
 0.070    2.00000
 0.071    2.00000
 0.072    1.00000
 0.073    2.00000
 0.073    3.00000
 0.074    0.00000
 0.075    3.00000
 0.076    1.00000
 0.077    1.00000
 0.077    2.00000
 0.078    1.00000
 0.079    0.00000
 0.080    2.00000
 0.081    3.00000
 0.081    1.00000
 0.082    1.00000
 0.083    2.00000
 0.084    2.00000
 0.085    2.00000
 0.086    1.00000
 0.086    1.00000
 0.087    3.00000
 0.088    2.00000
 0.089    0.00000
 0.090    0.00000
 0.090    0.00000
 0.091    1.00000
 0.092    4.00000
 0.093    1.00000
 0.094    2.00000
 0.095    3.00000
 0.095    3.00000
 0.096    2.00000
 0.097    1.00000
 0.098    0.00000
 0.099    3.00000
 0.099    1.00000
 0.100    0.00000
 0.101    1.00000
 0.102    1.00000
 0.103    3.00000
 0.103    3.00000
 0.104    2.00000
 0.105    2.00000
 0.106    3.00000
 0.107    1.00000
 0.108    1.00000
 0.108    2.00000
 0.109    2.00000
 0.110    1.00000
 0.111    2.00000
 0.112    1.00000
 0.112    1.00000
 0.113    0.00000
 0.114    1.00000
 0.115    0.00000
 0.116    0.00000
 0.117    0.00000
 0.117    1.00000
 0.118    2.00000
 0.119    1.00000
 0.120    2.00000
 0.121    2.00000
 0.121    0.00000
 0.122    3.00000
 0.123    0.00000
 0.124    0.00000
 0.125    1.00000
 0.125    0.00000
 0.126    0.00000
 0.127    3.00000
 0.128    2.00000
 0.129    0.00000
 0.130    1.00000
 0.130    1.00000
 0.131    5.00000
 0.132    1.00000
 0.133    0.00000
 0.134    1.00000
 0.134    2.00000
 0.135    1.00000
 0.136    1.00000
 0.137    1.00000
 0.138    1.00000
 0.139    1.00000
 0.139    1.00000
 0.140    0.00000
 0.141    1.00000
 0.142    0.00000
 0.143    0.00000
 0.143    0.00000
 0.144    1.00000
 0.145    0.00000
 0.146    1.00000
 0.147    1.00000
 0.147    1.00000
 0.148    0.00000
 0.149    1.00000
 0.150    1.00000
 0.151    1.00000
 0.152    1.00000
 0.152    1.00000
 0.153    0.00000
 0.154    0.00000
 0.155    2.00000
 0.156    2.00000
 0.156    0.00000
 0.157    3.00000
 0.158    2.00000
 0.159    1.00000
 0.160    0.00000
 0.161    1.00000
 0.161    1.00000
 0.162    1.00000
 0.163    4.00000
 0.164    0.00000
 0.165    0.00000
 0.165    1.00000
 0.166    1.00000
 0.167    0.00000
 0.168    1.00000
 0.169    0.00000
 0.169    1.00000
 0.170    0.00000
 0.171    1.00000
 0.172    1.00000
 0.173    0.00000
 0.174    1.00000
 0.174    1.00000
 0.175    2.00000
 0.176    1.00000
 0.177    0.00000
 0.178    1.00000
 0.178    1.00000
 0.179    1.00000
 0.180    2.00000
 0.181    0.00000
 0.182    3.00000
 0.182    0.00000
 0.183    1.00000
 0.184    1.00000
 0.185    0.00000
 0.186    1.00000
 0.187    0.00000
 0.187    2.00000
 0.188    1.00000
 0.189    0.00000
 0.190    1.00000
 0.191    0.00000
 0.191    1.00000
 0.192    2.00000
 0.193    0.00000
 0.194    1.00000
 0.195    1.00000
 0.196    0.00000
 0.196    2.00000
 0.197    1.00000
 0.198    2.00000
 0.199    0.00000
 0.200    2.00000
 0.200    3.00000
 0.201    2.00000
 0.202    4.00000
 0.203    0.00000
 0.204    2.00000
 0.204    1.00000
 0.205    1.00000
 0.206    2.00000
 0.207    2.00000
 0.208    1.00000
 0.209    0.00000
 0.209    2.00000
 0.210    0.00000
 0.211    1.00000
 0.212    3.00000
 0.213    1.00000
 0.213    0.00000
 0.214    3.00000
 0.215    1.00000
 0.216    5.00000
 0.217    0.00000
 0.218    2.00000
 0.218    4.00000
 0.219    1.00000
 0.220    2.00000
 0.221    1.00000
 0.222    1.00000
 0.222    2.00000
 0.223    4.00000
 0.224    1.00000
 0.225    3.00000
 0.226    0.00000
 0.226    1.00000
 0.227    0.00000
 0.228    0.00000
 0.229    2.00000
 0.230    2.00000
 0.231    5.00000
 0.231    1.00000
 0.232    0.00000
 0.233    1.00000
 0.234    2.00000
 0.235    2.00000
 0.235    0.00000
 0.236    3.00000
 0.237    1.00000
 0.238    0.00000
 0.239    1.00000
 0.240    3.00000
 0.240    1.00000
 0.241    2.00000
 0.242    1.00000
 0.243    1.00000
 0.244    1.00000
 0.244    1.00000
 0.245    1.00000
 0.246    2.00000
 0.247    1.00000
 0.248    0.00000
 0.248    2.00000
 0.249    1.00000
 0.250    4.00000
 0.251    0.00000
 0.252    0.00000
 0.253    0.00000
 0.253    1.00000
 0.254    2.00000
 0.255    3.00000
 0.256    2.00000
 0.257    1.00000
 0.257    2.00000
 0.258    1.00000
 0.259    1.00000
 0.260    2.00000
 0.261    0.00000
 0.262    2.00000
 0.262    2.00000
 0.263    1.00000
 0.264    5.00000
 0.265    1.00000
 0.266    2.00000
 0.266    3.00000
 0.267    2.00000
 0.268    1.00000
 0.269    1.00000
 0.270    1.00000
 0.270    1.00000
 0.271    1.00000
 0.272    2.00000
 0.273    1.00000
 0.274    5.00000
 0.275    0.00000
 0.275    2.00000
 0.276    3.00000
 0.277    2.00000
 0.278    6.00000
 0.279    2.00000
 0.279    3.00000
 0.280    3.00000
 0.281    2.00000
 0.282    4.00000
 0.283    1.00000
 0.284    3.00000
 0.284    1.00000
 0.285    3.00000
 0.286    3.00000
 0.287    3.00000
 0.288    1.00000
 0.288    0.00000
 0.289    2.00000
 0.290    0.00000
 0.291    4.00000
 0.292    2.00000
 0.292    2.00000
 0.293    4.00000
 0.294    1.00000
 0.295    2.00000
 0.296    4.00000
 0.297    1.00000
 0.297    2.00000
 0.298    3.00000
 0.299    2.00000
 0.300    4.00000
 0.301    1.00000
 0.301    1.00000
 0.302    1.00000
 0.303    0.00000
 0.304    2.00000
 0.305    2.00000
 0.306    2.00000
 0.306    3.00000
 0.307    3.00000
 0.308    2.00000
 0.309    2.00000
 0.310    5.00000
 0.310    2.00000
 0.311    5.00000
 0.312    2.00000
 0.313    4.00000
 0.314    4.00000
 0.314    7.00000
 0.315    7.00000
 0.316    4.00000
 0.317    8.00000
 0.318    7.00000
 0.319    5.00000
 0.319    6.00000
 0.320    2.00000
 0.321    4.00000
 0.322    7.00000
 0.323    12.00000
 0.323    12.00000
 0.324    12.00000
 0.325    14.00000
 0.326    9.00000
 0.327    12.00000
 0.328    19.00000
 0.328    29.00000
 0.329    21.00000
 0.330    19.00000
 0.331    27.00000
 0.332    38.00000
 0.332    36.00000
 0.333    41.00000
 0.334    39.00000
 0.335    58.00000
 0.336    53.00000
 0.336    71.00000
 0.337    64.00000
 0.338    83.00000
 0.339    71.00000
 0.340    104.00000
 0.341    114.00000
 0.341    119.00000
 0.342    157.00000
 0.343    167.00000
 0.344    166.00000
 0.345    208.00000
 0.345    245.00000
 0.346    247.00000
 0.347    290.00000
 0.348    298.00000
 0.349    330.00000
 0.350    343.00000
 0.350    421.00000
 0.351    432.00000
 0.352    459.00000
 0.353    521.00000
 0.354    613.00000
 0.354    619.00000
 0.355    665.00000
 0.356    712.00000
 0.357    816.00000
 0.358    855.00000
 0.358    958.00000
 0.359    931.00000
 0.360    1075.00000
 0.361    1109.00000
 0.362    1206.00000
 0.363    1357.00000
 0.363    1379.00000
 0.364    1519.00000
 0.365    1629.00000
 0.366    1713.00000
 0.367    1834.00000
 0.367    1937.00000
 0.368    1954.00000
 0.369    2177.00000
 0.370    2247.00000
 0.371    2378.00000
 0.372    2566.00000
 0.372    2629.00000
 0.373    2760.00000
 0.374    2921.00000
 0.375    3108.00000
 0.376    3207.00000
 0.376    3253.00000
 0.377    3441.00000
 0.378    3607.00000
 0.379    3540.00000
 0.380    3915.00000
 0.380    3997.00000
 0.381    4112.00000
 0.382    4088.00000
 0.383    4408.00000
 0.384    4478.00000
 0.385    4590.00000
 0.385    4766.00000
 0.386    4839.00000
 0.387    4965.00000
 0.388    5103.00000
 0.389    5139.00000
 0.389    5080.00000
 0.390    5408.00000
 0.391    5242.00000
 0.392    5425.00000
 0.393    5393.00000
 0.394    5386.00000
 0.394    5519.00000
 0.395    5564.00000
 0.396    5634.00000
 0.397    5645.00000
 0.398    5531.00000
 0.398    5600.00000
 0.399    5558.00000
 0.400    5477.00000
 0.401    5515.00000
 0.402    5346.00000
 0.402    5239.00000
 0.403    5160.00000
 0.404    5180.00000
 0.405    5053.00000
 0.406    5089.00000
 0.407    4925.00000
 0.407    4776.00000
 0.408    4699.00000
 0.409    4689.00000
 0.410    4470.00000
 0.411    4453.00000
 0.411    4315.00000
 0.412    4279.00000
 0.413    4056.00000
 0.414    4006.00000
 0.415    3891.00000
 0.416    3847.00000
 0.416    3762.00000
 0.417    3692.00000
 0.418    3540.00000
 0.419    3432.00000
 0.420    3388.00000
 0.420    3260.00000
 0.421    3101.00000
 0.422    3095.00000
 0.423    3066.00000
 0.424    2890.00000
 0.424    2859.00000
 0.425    2763.00000
 0.426    2759.00000
 0.427    2662.00000
 0.428    2684.00000
 0.429    2529.00000
 0.429    2489.00000
 0.430    2458.00000
 0.431    2306.00000
 0.432    2261.00000
 0.433    2307.00000
 0.433    2238.00000
 0.434    2238.00000
 0.435    2057.00000
 0.436    1959.00000
 0.437    1989.00000
 0.438    1927.00000
 0.438    1867.00000
 0.439    1868.00000
 0.440    1847.00000
 0.441    1780.00000
 0.442    1782.00000
 0.442    1637.00000
 0.443    1613.00000
 0.444    1561.00000
 0.445    1538.00000
 0.446    1468.00000
 0.446    1459.00000
 0.447    1466.00000
 0.448    1393.00000
 0.449    1381.00000
 0.450    1402.00000
 0.451    1298.00000
 0.451    1283.00000
 0.452    1180.00000
 0.453    1249.00000
 0.454    1155.00000
 0.455    1073.00000
 0.455    1030.00000
 0.456    1078.00000
 0.457    1134.00000
 0.458    1023.00000
 0.459    1007.00000
 0.460    963.00000
 0.460    894.00000
 0.461    869.00000
 0.462    917.00000
 0.463    912.00000
 0.464    818.00000
 0.464    794.00000
 0.465    824.00000
 0.466    775.00000
 0.467    791.00000
 0.468    739.00000
 0.468    756.00000
 0.469    730.00000
 0.470    748.00000
 0.471    694.00000
 0.472    695.00000
 0.473    598.00000
 0.473    642.00000
 0.474    663.00000
 0.475    646.00000
 0.476    581.00000
 0.477    594.00000
 0.477    566.00000
 0.478    586.00000
 0.479    573.00000
 0.480    524.00000
 0.481    567.00000
 0.482    544.00000
 0.482    529.00000
 0.483    535.00000
 0.484    546.00000
 0.485    495.00000
 0.486    504.00000
 0.486    499.00000
 0.487    535.00000
 0.488    480.00000
 0.489    472.00000
 0.490    485.00000
 0.490    439.00000
 0.491    463.00000
 0.492    452.00000
 0.493    471.00000
 0.494    471.00000
 0.495    445.00000
 0.495    432.00000
 0.496    454.00000
 0.497    427.00000
 0.498    418.00000
 0.499    438.00000
 0.499    381.00000
 0.500    390.00000
 0.501    392.00000
 0.502    435.00000
 0.503    396.00000
 0.504    409.00000
 0.504    383.00000
 0.505    429.00000
 0.506    367.00000
 0.507    411.00000
 0.508    404.00000
 0.508    360.00000
 0.509    358.00000
 0.510    361.00000
 0.511    395.00000
 0.512    368.00000
 0.512    357.00000
 0.513    330.00000
 0.514    354.00000
 0.515    354.00000
 0.516    317.00000
 0.517    311.00000
 0.517    338.00000
 0.518    355.00000
 0.519    337.00000
 0.520    338.00000
 0.521    334.00000
 0.521    335.00000
 0.522    348.00000
 0.523    334.00000
 0.524    336.00000
 0.525    300.00000
 0.526    347.00000
 0.526    329.00000
 0.527    319.00000
 0.528    287.00000
 0.529    291.00000
 0.530    269.00000
 0.530    293.00000
 0.531    324.00000
 0.532    290.00000
 0.533    280.00000
 0.534    287.00000
 0.534    302.00000
 0.535    275.00000
 0.536    307.00000
 0.537    260.00000
 0.538    259.00000
 0.539    257.00000
 0.539    284.00000
 0.540    258.00000
 0.541    252.00000
 0.542    270.00000
 0.543    277.00000
 0.543    277.00000
 0.544    263.00000
 0.545    266.00000
 0.546    279.00000
 0.547    248.00000
 0.547    294.00000
 0.548    244.00000
 0.549    231.00000
 0.550    273.00000
 0.551    260.00000
 0.552    266.00000
 0.552    253.00000
 0.553    230.00000
 0.554    249.00000
 0.555    269.00000
 0.556    257.00000
 0.556    233.00000
 0.557    237.00000
 0.558    211.00000
 0.559    224.00000
 0.560    207.00000
 0.561    222.00000
 0.561    250.00000
 0.562    194.00000
 0.563    224.00000
 0.564    208.00000
 0.565    237.00000
 0.565    227.00000
 0.566    222.00000
 0.567    198.00000
 0.568    210.00000
 0.569    198.00000
 0.569    214.00000
 0.570    200.00000
 0.571    209.00000
 0.572    224.00000
 0.573    187.00000
 0.574    208.00000
 0.574    192.00000
 0.575    209.00000
 0.576    201.00000
 0.577    201.00000
 0.578    173.00000
 0.578    185.00000
 0.579    195.00000
 0.580    204.00000
 0.581    185.00000
 0.582    195.00000
 0.583    178.00000
 0.583    154.00000
 0.584    148.00000
 0.585    177.00000
 0.586    179.00000
 0.587    174.00000
 0.587    176.00000
 0.588    171.00000
 0.589    160.00000
 0.590    168.00000
 0.591    186.00000
 0.591    201.00000
 0.592    157.00000
 0.593    173.00000
 0.594    131.00000
 0.595    163.00000
 0.596    175.00000
 0.596    165.00000
 0.597    172.00000
 0.598    156.00000
 0.599    166.00000
 0.600    176.00000
 0.600    164.00000
 0.601    157.00000
 0.602    155.00000
 0.603    166.00000
 0.604    182.00000
 0.605    144.00000
 0.605    154.00000
 0.606    144.00000
 0.607    160.00000
 0.608    162.00000
 0.609    173.00000
 0.609    177.00000
 0.610    156.00000
 0.611    159.00000
 0.612    153.00000
 0.613    158.00000
 0.613    152.00000
 0.614    164.00000
 0.615    147.00000
 0.616    164.00000
 0.617    145.00000
 0.618    144.00000
 0.618    165.00000
 0.619    138.00000
 0.620    154.00000
 0.621    163.00000
 0.622    150.00000
 0.622    139.00000
 0.623    157.00000
 0.624    144.00000
 0.625    158.00000
 0.626    141.00000
 0.627    156.00000
 0.627    146.00000
 0.628    163.00000
 0.629    139.00000
 0.630    145.00000
 0.631    145.00000
 0.631    136.00000
 0.632    133.00000
 0.633    136.00000
 0.634    144.00000
 0.635    161.00000
 0.635    143.00000
 0.636    159.00000
 0.637    142.00000
 0.638    150.00000
 0.639    140.00000
 0.640    111.00000
 0.640    139.00000
 0.641    139.00000
 0.642    133.00000
 0.643    132.00000
 0.644    137.00000
 0.644    145.00000
 0.645    132.00000
 0.646    144.00000
 0.647    138.00000
 0.648    133.00000
 0.649    130.00000
 0.649    152.00000
 0.650    164.00000
 0.651    117.00000
 0.652    115.00000
 0.653    123.00000
 0.653    122.00000
 0.654    145.00000
 0.655    116.00000
 0.656    146.00000
 0.657    114.00000
 0.657    126.00000
 0.658    125.00000
 0.659    137.00000
 0.660    109.00000
 0.661    107.00000
 0.662    118.00000
 0.662    141.00000
 0.663    99.00000
 0.664    126.00000
 0.665    128.00000
 0.666    108.00000
 0.666    112.00000
 0.667    123.00000
 0.668    104.00000
 0.669    106.00000
 0.670    117.00000
 0.671    121.00000
 0.671    125.00000
 0.672    114.00000
 0.673    126.00000
 0.674    114.00000
 0.675    130.00000
 0.675    99.00000
 0.676    129.00000
 0.677    100.00000
 0.678    106.00000
 0.679    120.00000
 0.679    113.00000
 0.680    107.00000
 0.681    108.00000
 0.682    115.00000
 0.683    104.00000
 0.684    108.00000
 0.684    112.00000
 0.685    100.00000
 0.686    120.00000
 0.687    106.00000
 0.688    106.00000
 0.688    92.00000
 0.689    98.00000
 0.690    116.00000
 0.691    115.00000
 0.692    96.00000
 0.693    96.00000
 0.693    103.00000
 0.694    99.00000
 0.695    111.00000
 0.696    105.00000
 0.697    122.00000
 0.697    93.00000
 0.698    102.00000
 0.699    108.00000
 0.700    98.00000
 0.701    99.00000
 0.701    107.00000
 0.702    96.00000
 0.703    100.00000
 0.704    88.00000
 0.705    77.00000
 0.706    110.00000
 0.706    101.00000
 0.707    95.00000
 0.708    87.00000
 0.709    108.00000
 0.710    105.00000
 0.710    92.00000
 0.711    117.00000
 0.712    100.00000
 0.713    104.00000
 0.714    93.00000
 0.715    102.00000
 0.715    117.00000
 0.716    90.00000
 0.717    96.00000
 0.718    101.00000
 0.719    99.00000
 0.719    106.00000
 0.720    112.00000
 0.721    93.00000
 0.722    96.00000
 0.723    94.00000
 0.723    112.00000
 0.724    89.00000
 0.725    103.00000
 0.726    113.00000
 0.727    102.00000
 0.728    100.00000
 0.728    95.00000
 0.729    90.00000
 0.730    109.00000
 0.731    103.00000
 0.732    80.00000
 0.732    88.00000
 0.733    91.00000
 0.734    98.00000
 0.735    100.00000
 0.736    82.00000
 0.737    112.00000
 0.737    108.00000
 0.738    99.00000
 0.739    108.00000
 0.740    93.00000
 0.741    123.00000
 0.741    101.00000
 0.742    98.00000
 0.743    94.00000
 0.744    79.00000
 0.745    95.00000
 0.745    101.00000
 0.746    96.00000
 0.747    106.00000
 0.748    87.00000
 0.749    105.00000
 0.750    85.00000
 0.750    90.00000
 0.751    99.00000
 0.752    86.00000
 0.753    82.00000
 0.754    110.00000
 0.754    96.00000
 0.755    109.00000
 0.756    107.00000
 0.757    89.00000
 0.758    106.00000
 0.759    102.00000
 0.759    114.00000
 0.760    99.00000
 0.761    106.00000
 0.762    79.00000
 0.763    98.00000
 0.763    97.00000
 0.764    115.00000
 0.765    90.00000
 0.766    108.00000
 0.767    102.00000
 0.767    119.00000
 0.768    104.00000
 0.769    93.00000
 0.770    109.00000
 0.771    96.00000
 0.772    90.00000
 0.772    92.00000
 0.773    86.00000
 0.774    91.00000
 0.775    97.00000
 0.776    93.00000
 0.776    104.00000
 0.777    95.00000
 0.778    105.00000
 0.779    108.00000
 0.780    99.00000
 0.781    89.00000
 0.781    96.00000
 0.782    93.00000
 0.783    89.00000
 0.784    86.00000
 0.785    89.00000
 0.785    107.00000
 0.786    104.00000
 0.787    80.00000
 0.788    97.00000
 0.789    121.00000
 0.789    99.00000
 0.790    99.00000
 0.791    91.00000
 0.792    108.00000
 0.793    115.00000
 0.794    107.00000
 0.794    109.00000
 0.795    115.00000
 0.796    88.00000
 0.797    96.00000
 0.798    90.00000
 0.798    94.00000
 0.799    113.00000
 0.800    89.00000
 0.801    85.00000
 0.802    101.00000
 0.803    102.00000
 0.803    87.00000
 0.804    96.00000
 0.805    84.00000
 0.806    109.00000
 0.807    99.00000
 0.807    124.00000
 0.808    99.00000
 0.809    93.00000
 0.810    99.00000
 0.811    93.00000
 0.811    102.00000
 0.812    88.00000
 0.813    100.00000
 0.814    105.00000
 0.815    98.00000
 0.816    102.00000
 0.816    99.00000
 0.817    100.00000
 0.818    106.00000
 0.819    92.00000
 0.820    87.00000
 0.820    102.00000
 0.821    93.00000
 0.822    91.00000
 0.823    99.00000
 0.824    97.00000
 0.825    71.00000
 0.825    76.00000
 0.826    95.00000
 0.827    101.00000
 0.828    84.00000
 0.829    87.00000
 0.829    80.00000
 0.830    78.00000
 0.831    80.00000
 0.832    88.00000
 0.833    82.00000
 0.833    85.00000
 0.834    81.00000
 0.835    92.00000
 0.836    65.00000
 0.837    70.00000
 0.838    73.00000
 0.838    78.00000
 0.839    68.00000
 0.840    76.00000
 0.841    71.00000
 0.842    90.00000
 0.842    83.00000
 0.843    70.00000
 0.844    81.00000
 0.845    69.00000
 0.846    76.00000
